# From: http://henke.lbl.gov/optical_constants/gastrn2.html
# He Pressure=760. Path=1. cm
# Photon Energy (eV), Transmission
    8000.0      0.99997
    8040.0      0.99997
    8080.0      0.99997
    8120.0      0.99997
    8160.0      0.99997
    8200.0      0.99997
    8240.0      0.99997
    8280.0      0.99997
    8320.0      0.99997
    8360.0      0.99997
    8400.0      0.99997
    8440.0      0.99997
    8480.0      0.99997
    8520.0      0.99997
    8560.0      0.99997
    8600.0      0.99997
    8640.0      0.99997
    8680.0      0.99997
    8720.0      0.99997
    8760.0      0.99997
    8800.0      0.99997
    8840.0      0.99997
    8880.0      0.99997
    8920.0      0.99997
    8960.0      0.99997
    9000.0      0.99997
    9040.0      0.99997
    9080.0      0.99997
    9120.0      0.99997
    9160.0      0.99997
    9200.0      0.99997
    9240.0      0.99997
    9280.0      0.99997
    9320.0      0.99997
    9360.0      0.99997
    9400.0      0.99997
    9440.0      0.99997
    9480.0      0.99997
    9520.0      0.99997
    9560.0      0.99997
    9600.0      0.99997
    9640.0      0.99997
    9680.0      0.99997
    9720.0      0.99997
    9760.0      0.99997
    9800.0      0.99997
    9840.0      0.99997
    9880.0      0.99997
    9920.0      0.99997
    9960.0      0.99997
    10000.      0.99997
    10040.      0.99997
    10080.      0.99997
    10120.      0.99997
    10160.      0.99997
    10200.      0.99997
    10240.      0.99997
    10280.      0.99997
    10320.      0.99997
    10360.      0.99997
    10400.      0.99997
    10440.      0.99997
    10480.      0.99997
    10520.      0.99997
    10560.      0.99997
    10600.      0.99997
    10640.      0.99997
    10680.      0.99997
    10720.      0.99997
    10760.      0.99997
    10800.      0.99997
    10840.      0.99997
    10880.      0.99997
    10920.      0.99997
    10960.      0.99997
    11000.      0.99997
    11040.      0.99997
    11080.      0.99997
    11120.      0.99997
    11160.      0.99997
    11200.      0.99997
    11240.      0.99997
    11280.      0.99997
    11320.      0.99997
    11360.      0.99997
    11400.      0.99997
    11440.      0.99997
    11480.      0.99997
    11520.      0.99997
    11560.      0.99997
    11600.      0.99997
    11640.      0.99997
    11680.      0.99997
    11720.      0.99997
    11760.      0.99997
    11800.      0.99997
    11840.      0.99997
    11880.      0.99997
    11920.      0.99997
    11960.      0.99997
    12000.      0.99997
    12040.      0.99997
    12080.      0.99997
    12120.      0.99997
    12160.      0.99997
    12200.      0.99997
    12240.      0.99997
    12280.      0.99997
    12320.      0.99997
    12360.      0.99997
    12400.      0.99997
    12440.      0.99997
    12480.      0.99997
    12520.      0.99997
    12560.      0.99997
    12600.      0.99997
    12640.      0.99997
    12680.      0.99997
    12720.      0.99997
    12760.      0.99997
    12800.      0.99997
    12840.      0.99997
    12880.      0.99997
    12920.      0.99997
    12960.      0.99997
    13000.      0.99997
    13040.      0.99997
    13080.      0.99997
    13120.      0.99997
    13160.      0.99997
    13200.      0.99997
    13240.      0.99997
    13280.      0.99997
    13320.      0.99997
    13360.      0.99997
    13400.      0.99997
    13440.      0.99997
    13480.      0.99997
    13520.      0.99997
    13560.      0.99997
    13600.      0.99997
    13640.      0.99997
    13680.      0.99997
    13720.      0.99997
    13760.      0.99997
    13800.      0.99997
    13840.      0.99997
    13880.      0.99997
    13920.      0.99997
    13960.      0.99997
    14000.      0.99997
